# Optical absorption spectrum of Lucifer yellow CH in water
#
# Data from PhotochemCAD 2.1a has been munged on  2 June 2017 by Scott Prahl to make
# the information available to non-Windows users.  Although I have tried to be as careful
# as possible, I may have introduced some error; the cautious user is advised to compare
# these results with the original sources at www.photochemcad.com:
#
# H. Du, R. A. Fuh, J. Li, A. Corkan, J. S. Lindsey, "PhotochemCAD: A computer-aided design
#     and research tool in photochemistry," Photochem. Photobiol., 68, 141-142, 1998. 
# J. M. Dixon, M. Taniguchi and J. S. Lindsey "PhotochemCAD 2. A refined program with accompanying 
#     spectral databases for photochemical calculations", Photochem. Photobiol., 81, 212-213, 2005.
#
# The spectral absorption measurements were made by R.-C. A. Fuh in the summer of 1995 using a Cary 3.  
# The absorption values were collected using a spectral bandwidth of 1.0 nm, a signal averaging time of 0.133 sec, a data interval of 0.25 nm, and a scan rate of 112.5 nm/min.
#
# These measurements were scaled to make the molar extinction coefficient match
# the value of 24200 cm-1/M at 279.8 nm.  These values were 
# then interpolated to report extinction coefficients at regular 1nm intervals
#
# The reported molar extinction coefficient is from
# Stewart, W. W. (1981) Synthesis of 3,6-disulfonated 4-aminonapthalimides.  J. Am. Chem. Soc. 103, 7615-7620.
#
##Wavelength (nm)	Molar Extinction (cm-1/M) 
219.75	21703
220	21651
220.25	21659
220.5	21636
220.75	21607
221	21599
221.25	21630
221.5	21773
221.75	21847
222	21873
222.25	21961
222.5	22109
222.75	22130
223	22333
223.25	22436
223.5	22583
223.75	22560
224	22834
224.25	22836
224.5	23018
224.75	23135
225	23306
225.25	23436
225.5	23643
225.75	23852
226	23934
226.25	23918
226.5	24091
226.75	24243
227	24266
227.25	24429
227.5	24591
227.75	24681
228	24741
228.25	24916
228.5	24924
228.75	25022
229	25139
229.25	25044
229.5	25115
229.75	25040
230	25141
230.25	25125
230.5	24983
230.75	24852
231	24761
231.25	24730
231.5	24571
231.75	24331
232	24213
232.25	24040
232.5	23644
232.75	23432
233	23180
233.25	22753
233.5	22436
233.75	22047
234	21642
234.25	21233
234.5	20721
234.75	20178
235	19603
235.25	18946
235.5	18282
235.75	17699
236	17106
236.25	16551
236.5	16096
236.75	15615
237	15185
237.25	14711
237.5	14276
237.75	13901
238	13480
238.25	13127
238.5	12764
238.75	12439
239	12092
239.25	11857
239.5	11621
239.75	11407
240	11217
240.25	11053
240.5	10910
240.75	10780
241	10670
241.25	10566
241.5	10481
241.75	10415
242	10393
242.25	10316
242.5	10284
242.75	10287
243	10278
243.25	10319
243.5	10325
243.75	10301
244	10361
244.25	10384
244.5	10402
244.75	10468
245	10533
245.25	10601
245.5	10645
245.75	10681
246	10744
246.25	10817
246.5	10931
246.75	10999
247	11092
247.25	11157
247.5	11221
247.75	11275
248	11373
248.25	11466
248.5	11569
248.75	11651
249	11715
249.25	11830
249.5	11932
249.75	12028
250	12130
250.25	12233
250.5	12337
250.75	12473
251	12563
251.25	12649
251.5	12742
251.75	12878
252	12936
252.25	13054
252.5	13129
252.75	13227
253	13352
253.25	13432
253.5	13570
253.75	13630
254	13725
254.25	13811
254.5	13858
254.75	13909
255	13949
255.25	14078
255.5	14103
255.75	14186
256	14224
256.25	14327
256.5	14393
256.75	14419
257	14456
257.25	14565
257.5	14543
257.75	14632
258	14707
258.25	14760
258.5	14801
258.75	14842
259	14869
259.25	14882
259.5	14946
259.75	15054
260	15105
260.25	15189
260.5	15197
260.75	15251
261	15311
261.25	15437
261.5	15468
261.75	15588
262	15632
262.25	15683
262.5	15820
262.75	15943
263	16015
263.25	16133
263.5	16226
263.75	16352
264	16431
264.25	16536
264.5	16706
264.75	16790
265	16875
265.25	17025
265.5	17148
265.75	17259
266	17420
266.25	17553
266.5	17749
266.75	17842
267	18150
267.25	18254
267.5	18372
267.75	18547
268	18727
268.25	18914
268.5	19125
268.75	19137
269	19402
269.25	19497
269.5	19737
269.75	19941
270	20126
270.25	20312
270.5	20385
270.75	20592
271	20768
271.25	20986
271.5	21137
271.75	21254
272	21433
272.25	21559
272.5	21814
272.75	21979
273	22057
273.25	22203
273.5	22422
273.75	22595
274	22639
274.25	22750
274.5	22884
274.75	22932
275	23180
275.25	23302
275.5	23344
275.75	23552
276	23640
276.25	23732
276.5	23759
276.75	23816
277	23927
277.25	23998
277.5	24009
277.75	24029
278	24048
278.25	24030
278.5	24127
278.75	24147
279	24131
279.25	24146
279.5	24142
279.75	24200
280	24167
280.25	24133
280.5	24061
280.75	24048
281	23996
281.25	24003
281.5	23906
281.75	23916
282	23703
282.25	23768
282.5	23639
282.75	23459
283	23525
283.25	23359
283.5	23245
283.75	23166
284	22928
284.25	22854
284.5	22685
284.75	22510
285	22391
285.25	22168
285.5	22019
285.75	21898
286	21717
286.25	21429
286.5	21250
286.75	21056
287	20856
287.25	20595
287.5	20342
287.75	20147
288	19866
288.25	19646
288.5	19498
288.75	19208
289	18959
289.25	18678
289.5	18382
289.75	18103
290	17895
290.25	17506
290.5	17315
290.75	17059
291	16817
291.25	16538
291.5	16271
291.75	15978
292	15677
292.25	15430
292.5	15173
292.75	14827
293	14618
293.25	14322
293.5	14099
293.75	13845
294	13542
294.25	13311
294.5	13071
294.75	13016
295	12772
295.25	12522
295.5	12228
295.75	12079
296	11772
296.25	11497
296.5	11257
296.75	11000
297	10737
297.25	10476
297.5	10202
297.75	9972
298	9706
298.25	9469
298.5	9163
298.75	8939
299	8718
299.25	8478
299.5	8276
299.75	7994
300	7816
300.25	7560
300.5	7342
300.75	7152
301	6887
301.25	6717
301.5	6500
301.75	6319
302	6138
302.25	5982
302.5	5790
302.75	5591
303	5449
303.25	5261
303.5	5098
303.75	4979
304	4837
304.25	4670
304.5	4534
304.75	4411
305	4309
305.25	4177
305.5	4123
305.75	3980
306	3892
306.25	3812
306.5	3689
306.75	3612
307	3499
307.25	3455
307.5	3365
307.75	3297
308	3275
308.25	3177
308.5	3154
308.75	3073
309	3036
309.25	3019
309.5	2997
309.75	3163
310	3182
310.25	2937
310.5	2979
310.75	2980
311	3003
311.25	2886
311.5	2919
311.75	3001
312	2812
312.25	2794
312.5	2941
312.75	2874
313	2885
313.25	2837
313.5	2924
313.75	2733
314	2812
314.25	2749
314.5	2801
314.75	2750
315	2690
315.25	2675
315.5	2794
315.75	2718
316	2775
316.25	2585
316.5	2603
316.75	2611
317	2522
317.25	2552
317.5	2450
317.75	2588
318	2550
318.25	2613
318.5	2615
318.75	2465
319	2527
319.25	2619
319.5	2424
319.75	2554
320	2437
320.25	2515
320.5	2485
320.75	2458
321	2440
321.25	2473
321.5	2505
321.75	2481
322	2447
322.25	2457
322.5	2452
322.75	2469
323	2438
323.25	2431
323.5	2455
323.75	2485
324	2477
324.25	2479
324.5	2448
324.75	2460
325	2428
325.25	2543
325.5	2526
325.75	2504
326	2527
326.25	2547
326.5	2568
326.75	2569
327	2715
327.25	2763
327.5	2600
327.75	2786
328	2615
328.25	2761
328.5	2715
328.75	2788
329	2831
329.25	2824
329.5	2935
329.75	2852
330	2794
330.25	2849
330.5	2846
330.75	2849
331	2858
331.25	2879
331.5	2843
331.75	2805
332	2756
332.25	2770
332.5	2755
332.75	2739
333	2781
333.25	2732
333.5	2641
333.75	2695
334	2705
334.25	2650
334.5	2651
334.75	2676
335	2640
335.25	2677
335.5	2667
335.75	2566
336	2555
336.25	2610
336.5	2624
336.75	2632
337	2673
337.25	2539
337.5	2545
337.75	2595
338	2609
338.25	2588
338.5	2556
338.75	2621
339	2536
339.25	2529
339.5	2557
339.75	2525
340	2568
340.25	2515
340.5	2576
340.75	2460
341	2493
341.25	2517
341.5	2485
341.75	2523
342	2608
342.25	2646
342.5	2621
342.75	2647
343	2651
343.25	2706
343.5	2808
343.75	2823
344	2900
344.25	3002
344.5	3050
344.75	3018
345	3112
345.25	3145
345.5	3141
345.75	3248
346	3330
346.25	3380
346.5	3341
346.75	3358
347	3342
347.25	3292
347.5	3236
347.75	3330
348	3266
348.25	3213
348.5	3177
348.75	3169
349	3112
349.25	3018
349.5	3002
349.75	2977
350	2928
350.25	2846
350.5	2695
350.75	2717
351	2647
351.25	2615
351.5	2543
351.75	2497
352	2434
352.25	2462
352.5	2328
352.75	2330
353	2269
353.25	2295
353.5	2247
353.75	2208
354	2172
354.25	2165
354.5	2077
354.75	2202
355	2164
355.25	2167
355.5	2129
355.75	2063
356	2090
356.25	2080
356.5	2061
356.75	2039
357	2145
357.25	2098
357.5	2026
357.75	2059
358	2033
358.25	2127
358.5	2131
358.75	2078
359	2105
359.25	2100
359.5	2126
359.75	2120
360	2168
360.25	2145
360.5	2158
360.75	2202
361	2115
361.25	2237
361.5	2229
361.75	2257
362	2298
362.25	2260
362.5	2233
362.75	2306
363	2329
363.25	2327
363.5	2251
363.75	2301
364	2345
364.25	2370
364.5	2391
364.75	2403
365	2443
365.25	2444
365.5	2449
365.75	2473
366	2494
366.25	2546
366.5	2596
366.75	2543
367	2617
367.25	2604
367.5	2659
367.75	2624
368	2701
368.25	2709
368.5	2775
368.75	2802
369	2793
369.25	2842
369.5	2813
369.75	2895
370	2820
370.25	2880
370.5	2938
370.75	3002
371	2965
371.25	3021
371.5	3013
371.75	3061
372	3095
372.25	3132
372.5	3098
372.75	3250
373	3220
373.25	3279
373.5	3283
373.75	3344
374	3278
374.25	3387
374.5	3378
374.75	3353
375	3412
375.25	3447
375.5	3438
375.75	3519
376	3546
376.25	3627
376.5	3689
376.75	3639
377	3759
377.25	3789
377.5	3777
377.75	3790
378	3891
378.25	3904
378.5	3982
378.75	3941
379	4029
379.25	4000
379.5	4022
379.75	4117
380	4158
380.25	4201
380.5	4279
380.75	4287
381	4319
381.25	4345
381.5	4364
381.75	4471
382	4451
382.25	4562
382.5	4582
382.75	4587
383	4682
383.25	4649
383.5	4719
383.75	4748
384	4821
384.25	4879
384.5	4880
384.75	4938
385	4988
385.25	5041
385.5	5081
385.75	5070
386	5162
386.25	5241
386.5	5230
386.75	5257
387	5401
387.25	5404
387.5	5429
387.75	5469
388	5504
388.25	5524
388.5	5608
388.75	5652
389	5757
389.25	5753
389.5	5776
389.75	5825
390	5911
390.25	5893
390.5	5998
390.75	6002
391	6061
391.25	6133
391.5	6158
391.75	6205
392	6268
392.25	6303
392.5	6383
392.75	6410
393	6464
393.25	6464
393.5	6582
393.75	6626
394	6599
394.25	6682
394.5	6754
394.75	6814
395	6852
395.25	6894
395.5	6946
395.75	7008
396	7067
396.25	7111
396.5	7183
396.75	7229
397	7295
397.25	7372
397.5	7383
397.75	7432
398	7431
398.25	7519
398.5	7554
398.75	7634
399	7648
399.25	7698
399.5	7792
399.75	7766
400	7863
400.25	7932
400.5	7967
400.75	7968
401	7999
401.25	8048
401.5	8118
401.75	8128
402	8195
402.25	8245
402.5	8265
402.75	8303
403	8395
403.25	8428
403.5	8505
403.75	8507
404	8578
404.25	8632
404.5	8641
404.75	8742
405	8754
405.25	8776
405.5	8861
405.75	8866
406	8952
406.25	9001
406.5	9024
406.75	9059
407	9137
407.25	9109
407.5	9200
407.75	9221
408	9265
408.25	9363
408.5	9351
408.75	9486
409	9443
409.25	9509
409.5	9496
409.75	9595
410	9621
410.25	9655
410.5	9727
410.75	9777
411	9789
411.25	9813
411.5	9812
411.75	9956
412	9905
412.25	9988
412.5	10054
412.75	10032
413	10118
413.25	10083
413.5	10141
413.75	10167
414	10234
414.25	10225
414.5	10259
414.75	10289
415	10321
415.25	10356
415.5	10391
415.75	10446
416	10449
416.25	10508
416.5	10529
416.75	10524
417	10594
417.25	10606
417.5	10656
417.75	10678
418	10748
418.25	10698
418.5	10827
418.75	10795
419	10861
419.25	10843
419.5	10871
419.75	10897
420	10927
420.25	10969
420.5	10990
420.75	10986
421	11009
421.25	11069
421.5	11057
421.75	11045
422	11090
422.25	11117
422.5	11124
422.75	11130
423	11169
423.25	11134
423.5	11155
423.75	11171
424	11191
424.25	11217
424.5	11230
424.75	11230
425	11194
425.25	11258
425.5	11261
425.75	11242
426	11246
426.25	11274
426.5	11252
426.75	11283
427	11249
427.25	11308
427.5	11277
427.75	11287
428	11291
428.25	11279
428.5	11279
428.75	11251
429	11268
429.25	11242
429.5	11276
429.75	11221
430	11194
430.25	11270
430.5	11285
430.75	11205
431	11201
431.25	11230
431.5	11141
431.75	11170
432	11133
432.25	11169
432.5	11120
432.75	11121
433	11134
433.25	11094
433.5	11094
433.75	11068
434	11070
434.25	11029
434.5	11013
434.75	10997
435	10977
435.25	10972
435.5	10902
435.75	10849
436	10790
436.25	10826
436.5	10814
436.75	10696
437	10789
437.25	10737
437.5	10752
437.75	10640
438	10628
438.25	10563
438.5	10525
438.75	10501
439	10463
439.25	10523
439.5	10443
439.75	10417
440	10370
440.25	10302
440.5	10283
440.75	10228
441	10197
441.25	10159
441.5	10133
441.75	10126
442	10068
442.25	9996
442.5	10003
442.75	9960
443	9891
443.25	9890
443.5	9799
443.75	9746
444	9735
444.25	9690
444.5	9617
444.75	9622
445	9570
445.25	9535
445.5	9456
445.75	9405
446	9372
446.25	9314
446.5	9199
446.75	9200
447	9231
447.25	9096
447.5	9058
447.75	8962
448	8951
448.25	8914
448.5	8833
448.75	8784
449	8758
449.25	8682
449.5	8573
449.75	8544
450	8507
450.25	8435
450.5	8377
450.75	8280
451	8229
451.25	8172
451.5	8139
451.75	8054
452	8011
452.25	7976
452.5	7912
452.75	7854
453	7749
453.25	7755
453.5	7641
453.75	7609
454	7528
454.25	7436
454.5	7453
454.75	7402
455	7319
455.25	7264
455.5	7232
455.75	7150
456	7085
456.25	6985
456.5	6937
456.75	6887
457	6857
457.25	6737
457.5	6689
457.75	6576
458	6552
458.25	6473
458.5	6416
458.75	6358
459	6278
459.25	6219
459.5	6153
459.75	6096
460	5985
460.25	5980
460.5	5860
460.75	5827
461	5731
461.25	5675
461.5	5624
461.75	5546
462	5485
462.25	5368
462.5	5318
462.75	5257
463	5192
463.25	5113
463.5	5040
463.75	5061
464	4940
464.25	4896
464.5	4803
464.75	4783
465	4687
465.25	4633
465.5	4591
465.75	4530
466	4457
466.25	4375
466.5	4341
466.75	4319
467	4214
467.25	4211
467.5	4068
467.75	4083
468	4006
468.25	3943
468.5	3883
468.75	3839
469	3766
469.25	3712
469.5	3686
469.75	3618
470	3560
470.25	3517
470.5	3451
470.75	3386
471	3335
471.25	3317
471.5	3230
471.75	3172
472	3156
472.25	3100
472.5	3052
472.75	2980
473	2977
473.25	2914
473.5	2874
473.75	2832
474	2775
474.25	2735
474.5	2697
474.75	2691
475	2593
475.25	2529
475.5	2495
475.75	2433
476	2391
476.25	2353
476.5	2345
476.75	2335
477	2245
477.25	2196
477.5	2194
477.75	2128
478	2115
478.25	2075
478.5	2004
478.75	2025
479	1968
479.25	1938
479.5	1924
479.75	1917
480	1892
480.25	1848
480.5	1757
480.75	1755
481	1730
481.25	1710
481.5	1662
481.75	1617
482	1610
482.25	1581
482.5	1585
482.75	1570
483	1508
483.25	1483
483.5	1507
483.75	1426
484	1412
484.25	1410
484.5	1372
484.75	1377
485	1291
485.25	1265
485.5	1280
485.75	1271
486	1233
486.25	1238
486.5	1195
486.75	1201
487	1170
487.25	1120
487.5	1129
487.75	1126
488	1102
488.25	1111
488.5	1087
488.75	1029
489	1028
489.25	1014
489.5	991
489.75	981
490	986
490.25	975
490.5	962
490.75	920
491	952
491.25	892
491.5	899
491.75	890
492	874
492.25	832
492.5	819
492.75	809
493	775
493.25	817
493.5	838
493.75	807
494	783
494.25	788
494.5	785
494.75	757
495	734
495.25	731
495.5	733
495.75	731
496	702
496.25	721
496.5	720
496.75	722
497	696
497.25	710
497.5	642
497.75	689
498	669
498.25	591
498.5	653
498.75	608
499	645
499.25	617
499.5	596
499.75	651
500	586
500.25	589
500.5	579
500.75	557
501	584
501.25	581
501.5	546
501.75	551
502	547
502.25	592
502.5	563
502.75	517
503	552
503.25	560
503.5	522
503.75	573
504	526
504.25	523
504.5	542
504.75	536
505	508
505.25	516
505.5	535
505.75	515
506	526
506.25	531
506.5	537
506.75	510
507	458
507.25	514
507.5	522
507.75	515
508	514
508.25	472
508.5	469
508.75	477
509	486
509.25	459
509.5	526
509.75	479
510	478
510.25	442
510.5	417
510.75	509
511	486
511.25	430
511.5	455
511.75	441
512	467
512.25	454
512.5	471
512.75	427
513	477
513.25	472
513.5	416
513.75	459
514	460
514.25	459
514.5	438
514.75	429
515	426
515.25	445
515.5	446
515.75	366
516	399
516.25	447
516.5	459
516.75	411
517	457
517.25	434
517.5	432
517.75	432
518	413
518.25	428
518.5	443
518.75	466
519	406
519.25	412
519.5	465
519.75	426
520	451
520.25	467
520.5	407
520.75	409
521	374
521.25	425
521.5	354
521.75	440
522	405
522.25	410
522.5	421
522.75	416
523	455
523.25	412
523.5	377
523.75	412
524	433
524.25	418
524.5	446
524.75	414
525	424
525.25	419
525.5	413
525.75	419
526	416
526.25	401
526.5	421
526.75	406
527	363
527.25	390
527.5	387
527.75	357
528	398
528.25	404
528.5	406
528.75	455
529	373
529.25	450
529.5	412
529.75	409
530	400
530.25	395
530.5	390
530.75	463
531	405
531.25	387
531.5	391
531.75	390
532	411
532.25	406
532.5	370
532.75	435
533	405
533.25	412
533.5	383
533.75	368
534	362
534.25	406
534.5	387
534.75	385
535	408
535.25	379
535.5	408
535.75	374
536	363
536.25	332
536.5	394
536.75	312
537	348
537.25	365
537.5	376
537.75	361
538	391
538.25	346
538.5	405
538.75	353
539	338
539.25	349
539.5	385
539.75	378
540	368
540.25	333
540.5	406
540.75	367
541	380
541.25	365
541.5	350
541.75	355
542	320
542.25	336
542.5	342
542.75	317
543	352
543.25	350
543.5	311
543.75	343
544	337
544.25	346
544.5	356
544.75	338
545	333
545.25	363
545.5	312
545.75	343
546	311
546.25	336
546.5	316
546.75	346
547	310
547.25	357
547.5	312
547.75	340
548	279
548.25	342
548.5	365
548.75	296
549	352
549.25	360
549.5	358
549.75	315
550	290
550.25	293
550.5	264
550.75	333
551	315
551.25	291
551.5	293
551.75	359
552	314
552.25	269
552.5	318
552.75	290
553	306
553.25	265
553.5	229
553.75	296
554	290
554.25	329
554.5	293
554.75	286
555	332
555.25	272
555.5	277
555.75	280
556	290
556.25	277
556.5	286
556.75	238
557	278
557.25	289
557.5	262
557.75	251
558	224
558.25	282
558.5	225
558.75	240
559	208
559.25	266
559.5	280
559.75	296
560	274
560.25	237
560.5	276
560.75	304
561	301
561.25	232
561.5	241
561.75	257
562	215
562.25	223
562.5	260
562.75	234
563	242
563.25	236
563.5	209
563.75	178
564	244
564.25	193
564.5	187
564.75	209
565	223
565.25	215
565.5	263
565.75	198
566	188
566.25	210
566.5	231
566.75	205
567	224
567.25	230
567.5	242
567.75	193
568	231
568.25	227
568.5	202
568.75	194
569	202
569.25	244
569.5	198
569.75	217
570	151
570.25	198
570.5	156
570.75	164
571	186
571.25	150
571.5	179
571.75	154
572	180
572.25	154
572.5	179
572.75	201
573	197
573.25	166
573.5	145
573.75	149
574	195
574.25	179
574.5	182
574.75	154
575	170
575.25	170
575.5	172
575.75	172
576	192
576.25	190
576.5	175
576.75	159
577	155
577.25	172
577.5	145
577.75	127
578	147
578.25	160
578.5	172
578.75	150
579	138
579.25	143
579.5	158
579.75	152
580	141
580.25	147
580.5	164
580.75	198
581	153
581.25	166
581.5	97
581.75	117
582	157
582.25	107
582.5	157
582.75	128
583	125
583.25	144
583.5	121
583.75	172
584	158
584.25	155
584.5	97
584.75	131
585	132
585.25	110
585.5	105
585.75	90
586	142
586.25	90
586.5	167
586.75	98
587	137
587.25	132
587.5	148
587.75	141
588	120
588.25	98
588.5	92
588.75	92
589	99
589.25	91
589.5	139
589.75	97
590	112
590.25	81
590.5	116
590.75	95
591	90
591.25	115
591.5	73
591.75	122
592	72
592.25	104
592.5	99
592.75	165
593	122
593.25	101
593.5	122
593.75	95
594	109
594.25	62
594.5	108
594.75	110
595	72
595.25	106
595.5	79
595.75	50
596	59
596.25	88
596.5	116
596.75	71
597	98
597.25	78
597.5	89
597.75	28
598	57
598.25	96
598.5	110
598.75	106
599	77
599.25	75
599.5	65
599.75	113
600	73
600.25	71
600.5	86
600.75	35
601	108
601.25	62
601.5	81
601.75	69
602	69
602.25	72
602.5	69
602.75	82
603	36
603.25	54
603.5	57
603.75	50
604	62
604.25	46
604.5	58
604.75	54
605	89
605.25	60
605.5	31
605.75	38
606	71
606.25	78
606.5	49
606.75	48
607	109
607.25	85
607.5	87
607.75	71
608	74
608.25	87
608.5	47
608.75	79
609	59
609.25	68
609.5	93
609.75	85
610	50
610.25	71
610.5	97
610.75	44
611	58
611.25	48
611.5	101
611.75	76
612	72
612.25	66
612.5	69
612.75	73
613	82
613.25	61
613.5	16
613.75	59
614	58
614.25	63
614.5	44
614.75	75
615	62
615.25	49
615.5	37
615.75	65
616	78
616.25	72
616.5	32
616.75	115
617	43
617.25	70
617.5	54
617.75	68
618	38
618.25	84
618.5	71
618.75	30
619	67
619.25	62
619.5	71
619.75	89
620	92
620.25	70
620.5	62
620.75	69
621	85
621.25	72
621.5	50
621.75	71
622	65
622.25	65
622.5	16
622.75	17
623	68
623.25	54
623.5	72
623.75	91
624	33
624.25	12
624.5	23
624.75	60
625	28
625.25	49
625.5	30
625.75	26
626	53
626.25	39
626.5	40
626.75	48
627	50
627.25	77
627.5	59
627.75	33
628	34
628.25	4
628.5	60
628.75	66
629	50
629.25	70
629.5	66
629.75	28
630	15
630.25	39
630.5	27
630.75	17
631	13
631.25	42
631.5	43
631.75	53
632	56
632.25	71
632.5	72
632.75	71
633	55
633.25	13
633.5	38
633.75	56
634	13
634.25	38
634.5	76
634.75	55
635	86
635.25	9
635.5	36
635.75	19
636	45
636.25	71
636.5	3
636.75	29
637	19
637.25	37
637.5	70
637.75	21
638	57
638.25	56
638.5	60
638.75	45
639	33
639.25	33
639.5	21
639.75	35
640	67
640.25	39
640.5	40
640.75	50
641	66
641.25	64
641.5	78
641.75	34
642	69
642.25	26
642.5	46
642.75	60
643	33
643.25	32
643.5	42
643.75	18
644	69
644.25	-3
644.5	64
644.75	48
645	64
645.25	19
645.5	26
645.75	45
646	12
646.25	47
646.5	38
646.75	37
647	40
647.25	60
647.5	56
647.75	23
648	67
648.25	8
648.5	37
648.75	45
649	26
649.25	82
649.5	52
649.75	37
650	40
650.25	19
650.5	10
650.75	28
651	47
651.25	48
651.5	47
651.75	66
652	56
652.25	72
652.5	34
652.75	61
653	62
653.25	46
653.5	55
653.75	59
654	41
654.25	44
654.5	36
654.75	20
655	29
655.25	34
655.5	71
655.75	50
656	50
656.25	69
656.5	56
656.75	66
657	61
657.25	44
657.5	14
657.75	44
658	60
658.25	44
658.5	52
658.75	6
659	63
659.25	76
659.5	51
659.75	62
660	31
660.25	51
660.5	40
660.75	51
661	39
661.25	50
661.5	24
661.75	31
662	52
662.25	43
662.5	82
662.75	27
663	50
663.25	58
663.5	40
663.75	63
664	30
664.25	47
664.5	17
664.75	42
665	47
665.25	57
665.5	54
665.75	32
666	67
666.25	64
666.5	38
666.75	43
667	30
667.25	36
667.5	48
667.75	32
668	24
668.25	46
668.5	33
668.75	34
669	59
669.25	39
669.5	20
669.75	50
670	33
670.25	18
670.5	63
670.75	62
671	42
671.25	36
671.5	25
671.75	20
672	17
672.25	73
672.5	48
672.75	25
673	67
673.25	8
673.5	26
673.75	68
674	30
674.25	21
674.5	-8
674.75	32
675	51
675.25	10
675.5	31
675.75	55
676	47
676.25	41
676.5	64
676.75	42
677	34
677.25	46
677.5	41
677.75	18
678	28
678.25	35
678.5	36
678.75	38
679	-5
679.25	31
679.5	44
679.75	37
680	27
680.25	26
680.5	42
680.75	34
681	11
681.25	39
681.5	24
681.75	51
682	23
682.25	56
682.5	19
682.75	44
683	17
683.25	-3
683.5	40
683.75	12
684	33
684.25	33
684.5	74
684.75	40
685	8
685.25	17
685.5	37
685.75	46
686	53
686.25	50
686.5	16
686.75	33
687	19
687.25	23
687.5	69
687.75	12
688	50
688.25	40
688.5	30
688.75	52
689	1
689.25	28
689.5	49
689.75	22
690	43
690.25	23
690.5	87
690.75	36
691	32
691.25	10
691.5	2
691.75	18
692	31
692.25	7
692.5	32
692.75	39
693	25
693.25	34
693.5	31
693.75	19
694	56
694.25	24
694.5	58
694.75	27
695	55
695.25	-9
695.5	17
695.75	29
696	33
696.25	43
696.5	25
696.75	48
697	19
697.25	22
697.5	35
697.75	0
698	2
698.25	37
698.5	36
698.75	21
699	9
699.25	33
699.5	47
699.75	43
700	21
700.25	0
700.5	3
700.75	29
701	0
701.25	38
701.5	11
701.75	52
702	61
702.25	15
702.5	27
702.75	15
703	9
703.25	22
703.5	-17
703.75	23
704	14
704.25	33
704.5	26
704.75	33
705	18
705.25	20
705.5	30
705.75	31
706	5
706.25	12
706.5	21
706.75	26
707	12
707.25	18
707.5	41
707.75	22
708	5
708.25	7
708.5	37
708.75	27
709	32
709.25	11
709.5	8
709.75	31
710	28
710.25	19
710.5	47
710.75	35
711	19
711.25	80
711.5	17
711.75	23
712	9
712.25	14
712.5	63
712.75	34
713	20
713.25	35
713.5	22
713.75	15
714	0
714.25	11
714.5	28
714.75	72
715	41
715.25	17
715.5	40
715.75	53
716	26
716.25	3
716.5	17
716.75	41
717	62
717.25	26
717.5	33
717.75	64
718	67
718.25	39
718.5	43
718.75	12
719	18
719.25	21
719.5	54
719.75	11
720	47
